Time (s),Temp Probe Voltage (V),Calculated Temp (K)
0.0,+4.60857500E-03
0.456000089645,+4.60984900E-03
0.894000053406,+4.60446600E-03
1.33299994469,+4.60380300E-03
1.77099990845,+4.59357000E-03
2.20899987221,+4.58072300E-03
2.64700007439,+4.57843400E-03
3.08500003815,+4.55985300E-03
3.52300000191,+4.52416100E-03
3.96199989319,+4.52780100E-03
4.40000009537,+4.54617400E-03
4.83800005913,+4.56075000E-03
5.27699995041,+4.56709600E-03
5.71499991417,+4.57153000E-03
6.15299987793,+4.57441600E-03
6.59200000763,+4.59623500E-03
7.02999997139,+4.62371000E-03
7.46899986267,+4.62876800E-03
7.90700006485,+4.62749400E-03
8.34500002861,+4.62538700E-03
8.78299999237,+4.60942000E-03
9.22099995613,+4.58245200E-03
9.66000008583,+4.57809600E-03
10.0980000496,+4.57892800E-03
10.5369999409,+4.58132100E-03
10.9749999046,+4.57472900E-03
11.4129998684,+4.57937100E-03
11.8510000706,+4.58662600E-03
12.2890000343,+4.58955200E-03
12.7279999256,+4.60013600E-03
13.1659998894,+4.59146300E-03
13.6040000916,+4.61652000E-03
14.0420000553,+4.64173200E-03
14.4809999466,+4.65023600E-03
14.9179999828,+4.65171800E-03
15.3559999466,+4.64919600E-03
15.7929999828,+4.64779100E-03
16.2319998741,+4.64877900E-03
16.6700000763,+4.64733600E-03
17.1089999676,+4.63681700E-03
17.5469999313,+4.62449000E-03
17.9849998951,+4.62190300E-03
18.4230000973,+4.62570000E-03
18.861000061,+4.64183600E-03
19.2980000973,+4.66087200E-03
19.736000061,+4.65261500E-03
20.1740000248,+4.65264100E-03
20.611000061,+4.62879400E-03
21.0490000248,+4.62642800E-03
21.4869999886,+4.60083800E-03
21.9249999523,+4.60667600E-03
22.3619999886,+4.56882500E-03
22.7990000248,+4.57550900E-03
23.2369999886,+4.59038400E-03
23.6749999523,+4.59500000E-03
24.1129999161,+4.58208800E-03
24.5499999523,+4.61334700E-03
24.989000082,+4.77783200E-03
25.4259998798,+8.46249500E-03
25.864000082,+9.87907200E-03
26.3009998798,+9.59774400E-03
26.739000082,+9.29473900E-03
27.1770000458,+8.89502000E-03
27.6150000095,+8.92196200E-03
28.0529999733,+8.73148400E-03
28.4909999371,+8.45585000E-03
28.9309999943,+8.05828700E-03
29.368999958,+7.82691500E-03
29.8069999218,+7.59915800E-03
30.2460000515,+7.42094100E-03
30.6830000877,+7.23202400E-03
31.1210000515,+7.06483300E-03
31.5590000153,+6.90877400E-03
31.996999979,+6.71750300E-03
32.4349999428,+6.54518900E-03
32.8729999065,+6.34722200E-03
33.3109998703,+6.42473100E-03
33.7490000725,+7.35473100E-03
34.1879999638,+7.99255800E-03
34.6259999275,+7.74045900E-03
35.0639998913,+7.37095900E-03
35.5020000935,+6.88808600E-03
35.9400000572,+6.51711600E-03
36.378000021,+6.18517800E-03
36.8159999847,+5.94409300E-03
37.2539999485,+5.88213400E-03
37.6909999847,+5.78284500E-03
38.129999876,+5.42234200E-03
38.5680000782,+5.36337500E-03
39.006000042,+5.24614100E-03
39.4440000057,+5.11144500E-03
39.8819999695,+4.94342300E-03
40.3199999332,+4.89258200E-03
40.7590000629,+4.38279400E-03
41.1970000267,+4.28254300E-03
41.6349999905,+4.18620300E-03
42.0729999542,+4.11765200E-03
42.510999918,+4.08523600E-03
42.9489998817,+4.06673300E-03
43.3880000114,+4.07062100E-03
43.8259999752,+3.99161600E-03
44.263999939,+3.92752500E-03
44.7019999027,+3.92219400E-03
45.1410000324,+3.90726700E-03
45.5789999962,+3.87100200E-03
46.0179998875,+3.84801300E-03
46.4560000896,+3.82723400E-03
46.8940000534,+3.82892500E-03
47.3329999447,+3.81302200E-03
47.7709999084,+3.82105800E-03
48.2089998722,+3.79933000E-03
48.6470000744,+3.79271200E-03
49.0850000381,+3.78429900E-03
49.5230000019,+3.77198500E-03
49.9600000381,+3.77179000E-03
50.3980000019,+3.76582200E-03
50.8359999657,+3.75551100E-03
51.2750000954,+3.78783600E-03
51.7130000591,+3.77318200E-03
52.1510000229,+3.34822400E-03
52.5889999866,+3.45453500E-03
53.0269999504,+3.40656800E-03
53.4639999866,+3.63448100E-03
53.9019999504,+3.42793100E-03
54.3399999142,+3.75889200E-03
54.7779998779,+3.38477500E-03
55.2160000801,+2.86747100E-03
55.6540000439,+2.91218800E-03
56.0910000801,+2.88401100E-03
56.5290000439,+2.98174000E-03
56.9670000076,+3.22774000E-03
57.4049999714,+4.08194600E-03
57.8420000076,+4.08388400E-03
58.2799999714,+3.71933700E-03
58.7170000076,+3.55932500E-03
59.1549999714,+3.60634300E-03
59.5929999352,+3.65774300E-03
60.0309998989,+3.78086600E-03
60.4679999352,+3.89891900E-03
60.9059998989,+4.06075200E-03
61.3439998627,+3.92632900E-03
61.7809998989,+3.80966800E-03
62.2189998627,+4.07848800E-03
62.6570000648,+4.03165100E-03
63.0950000286,+3.97592100E-03
63.5339999199,+3.98504900E-03
63.9719998837,+4.01378600E-03
64.4100000858,+4.16043100E-03
64.8480000496,+4.31286500E-03
65.2860000134,+4.40886500E-03
65.7239999771,+4.49391600E-03
66.1629998684,+4.58138600E-03
66.5999999046,+4.64053600E-03
67.0379998684,+4.61566100E-03
67.4769999981,+4.93411300E-03
67.9140000343,+4.77598600E-03
68.3529999256,+4.77850800E-03
68.7909998894,+5.07666300E-03
69.2290000916,+4.92391900E-03
69.6670000553,+4.33910500E-03
70.1050000191,+4.06717500E-03
70.5439999104,+4.06750000E-03
70.9819998741,+3.98657100E-03
71.4200000763,+3.97138300E-03
71.8589999676,+3.93912300E-03
72.2969999313,+3.88812600E-03
72.7349998951,+3.87274400E-03
73.1719999313,+3.85359100E-03
73.6099998951,+3.75151900E-03
74.0480000973,+3.77234900E-03
74.486000061,+3.80057900E-03
74.9249999523,+3.83035500E-03
75.3629999161,+3.84507400E-03
75.8009998798,+3.85148500E-03
76.239000082,+3.84515200E-03
76.6770000458,+3.81449200E-03
77.114000082,+3.75255900E-03
77.5520000458,+3.70952000E-03
77.9900000095,+3.38161500E-03
78.4279999733,+3.01333700E-03
78.8659999371,+2.90758500E-03
79.3039999008,+2.94400600E-03
79.7430000305,+2.89264500E-03
80.1809999943,+2.88515500E-03
80.618999958,+2.86813400E-03
81.0580000877,+2.79750300E-03
81.4960000515,+2.94424000E-03
81.9340000153,+3.23875300E-03
82.371999979,+3.36274800E-03
82.8090000153,+3.35910700E-03
83.246999979,+3.36226700E-03
83.6859998703,+3.55517700E-03
84.1240000725,+3.56615100E-03
84.5620000362,+3.71495500E-03
85.0,+3.70789500E-03
85.4379999638,+3.66437400E-03
85.8759999275,+3.63134700E-03
86.3139998913,+3.57404400E-03
86.7520000935,+3.42516200E-03
87.1909999847,+3.47678300E-03
87.6289999485,+3.52882000E-03
88.0669999123,+3.48865400E-03
88.504999876,+3.42345800E-03
88.9430000782,+2.76963800E-03
89.381000042,+2.82389900E-03
89.8190000057,+2.90010800E-03
90.2569999695,+2.94512400E-03
90.6949999332,+3.02078700E-03
91.132999897,+3.08916900E-03
91.5699999332,+3.14670700E-03
92.007999897,+3.20775500E-03
92.4459998608,+3.24897400E-03
92.8840000629,+3.23195300E-03
93.3220000267,+3.27098700E-03
93.7599999905,+3.20427000E-03
94.1979999542,+3.06316400E-03
94.6349999905,+3.02314100E-03
95.0729999542,+2.92692000E-03
95.5099999905,+2.85656200E-03
95.9489998817,+2.81499200E-03
96.3870000839,+2.81033700E-03
96.8250000477,+2.77270700E-03
97.2630000114,+2.73627300E-03
97.7009999752,+2.70194600E-03
98.138999939,+2.66261200E-03
98.5769999027,+2.59571300E-03
99.0149998665,+2.57577900E-03
99.4530000687,+2.60793500E-03
99.8910000324,+2.66539500E-03
100.328999996,+2.65633200E-03
100.76699996,+2.65336700E-03
101.204999924,+2.57641700E-03
101.642999887,+2.46095200E-03
102.08100009,+2.39887600E-03
102.517999887,+2.37215600E-03
102.957000017,+2.28456900E-03
103.394999981,+2.22237600E-03
103.832999945,+2.32235500E-03
104.272000074,+2.54439100E-03
104.710000038,+2.61815600E-03
105.148000002,+2.69673200E-03
105.585999966,+2.77522900E-03
106.023999929,+2.86644400E-03
106.461999893,+2.93135400E-03
106.900000095,+2.99919000E-03
107.338000059,+3.07580200E-03
107.776000023,+3.14659000E-03
